time (s)	coil I (A)	last det (V)	int current (uC)
434839.785197	0.505842	162.792969	134.765625
434839.787208	0.854047	162.792969	134.765625
434839.789212	0.950988	162.792969	134.765625
434839.791214	0.947875	10.426625	0.246519
434840.770194	0.845881	276.269531	-294.628906
434840.772196	0.949001	276.269531	-294.628906
434840.774195	0.945612	10.401731	0.446597
434841.849109	0.417544	167.675781	143.750000
434841.851111	0.781593	167.675781	143.750000
434841.853110	0.950011	167.675781	143.750000
434841.855112	0.947358	10.420937	0.354996
434842.867187	0.824612	265.722656	-303.320312
434842.869188	0.949055	265.722656	-303.320312
434842.871190	0.945583	10.401412	0.451951
434843.947201	0.589677	167.773437	140.722656
434843.949202	0.903862	167.773437	140.722656
434843.951202	0.947388	167.773437	140.722656
434843.953201	0.944480	10.389280	0.298685
434844.963232	0.629104	217.871094	-337.597656
434844.965234	0.920791	217.871094	-337.597656
434844.967232	0.946725	217.871094	-337.597656
434844.969233	0.944021	10.384228	0.405026
434846.045253	0.755163	166.210937	139.160156
434846.047255	0.948158	166.210937	139.160156
434846.049256	0.946572	10.412295	0.293102
434847.061312	0.796974	204.492187	-346.484375
434847.063317	0.948754	204.492187	-346.484375
434847.065326	0.945596	10.401554	0.364557
434848.145342	0.947729	167.968750	137.011719
434848.149342	0.943076	167.968750	137.011719
434848.151343	0.942086	10.362949	0.295527
434849.157898	0.695809	184.570312	-363.281250
434849.159898	0.940393	184.570312	-363.281250
434849.161898	0.946659	184.570312	-363.281250
434849.163900	0.944236	10.386595	0.537138
434850.239934	0.817731	163.378906	132.031250
434850.241938	0.949306	163.378906	132.031250
434850.243939	0.945860	10.404461	0.252066
434851.220452	0.360702	288.085937	-289.746094
434851.222481	0.728555	288.085937	-289.746094
434851.224484	0.946940	288.085937	-289.746094
434851.226486	0.947240	288.085937	-289.746094
434851.228484	0.944916	10.394074	0.529637
434852.334485	0.346162	165.234375	125.000000
434852.336488	0.714954	165.234375	125.000000
434852.338488	0.944598	165.234375	125.000000
434852.340488	0.947426	165.234375	125.000000
434852.342488	0.945089	10.395980	0.274619
434853.318554	0.536994	252.246094	-315.722656
434853.320556	0.873943	252.246094	-315.722656
434853.322555	0.947209	252.246094	-315.722656
434853.324555	0.944038	10.384423	0.494366
434854.432636	0.532087	163.183594	121.191406
434854.434638	0.871115	163.183594	121.191406
434854.436637	0.947944	163.183594	121.191406
434854.438637	0.944724	10.391965	0.229909
434855.416790	0.727075	238.867187	-323.046875
434855.418793	0.946240	238.867187	-323.046875
434855.420793	0.946426	238.867187	-323.046875
434855.422793	0.944183	10.386018	0.695340
434856.497738	0.663428	178.515625	135.839844
434856.499740	0.932305	178.515625	135.839844
434856.501740	0.946638	178.515625	135.839844
434856.503740	0.946544	10.411985	0.356763
434857.514281	0.793048	213.867187	-341.406250
434857.516283	0.948130	213.867187	-341.406250
434857.518283	0.944917	10.394092	0.406434
434858.594833	0.652562	177.246094	134.375000
434858.596836	0.928839	177.246094	134.375000
434858.598834	0.946573	177.246094	134.375000
434858.600836	0.943964	10.383598	0.332106
434859.610815	0.682199	198.535156	-349.218750
434859.612817	0.937115	198.535156	-349.218750
434859.614816	0.946387	198.535156	-349.218750
434859.616817	0.943953	10.383484	0.493957
434860.691364	0.538471	174.609375	120.410156
434860.693364	0.875098	174.609375	120.410156
434860.695364	0.947907	174.609375	120.410156
434860.697364	0.944716	10.391876	0.323830
434861.709411	0.899303	181.250000	-358.789062
434861.711418	0.947006	181.250000	-358.789062
434861.713418	0.944200	10.386196	0.331670
434862.789466	0.713308	179.394531	119.335937
434862.791468	0.943115	179.394531	119.335937
434862.793468	0.945895	179.394531	119.335937
434862.795470	0.943713	10.380843	0.564354
434863.804385	0.548361	171.972656	-365.722656
434863.806388	0.881185	171.972656	-365.722656
434863.808385	0.947560	171.972656	-365.722656
434863.810385	0.944477	10.389244	0.314967
434864.886906	0.762782	178.222656	116.113281
434864.888909	0.947947	178.222656	116.113281
434864.890908	0.945676	10.402440	0.283449
434865.867909	0.389638	218.457031	-331.738281
434865.869912	0.755648	218.457031	-331.738281
434865.871912	0.947800	218.457031	-331.738281
434865.873910	0.946030	10.406331	0.460278
434866.981941	0.372389	171.679687	104.296875
434866.983940	0.739686	171.679687	104.296875
434866.985941	0.946744	171.679687	104.296875
434866.987943	0.946144	10.407589	0.252603
434867.966020	0.565837	227.343750	-326.464844
434867.968021	0.891052	227.343750	-326.464844
434867.970020	0.946712	227.343750	-326.464844
434867.972021	0.943888	10.382766	0.430136
434869.046049	0.321364	190.234375	123.828125
434869.048052	0.691523	190.234375	123.828125
434869.050049	0.939081	190.234375	123.828125
434869.052049	0.940432	190.234375	123.828125
434869.054049	0.943724	10.380967	0.408049
434870.064115	0.738438	226.464844	-327.441406
434870.066116	0.946169	226.464844	-327.441406
434870.068117	0.945626	10.401881	0.420995
434871.144663	0.591432	179.492187	111.035156
434871.146665	0.904559	179.492187	111.035156
434871.148665	0.946680	179.492187	111.035156
434871.150665	0.943935	10.383280	0.358769
434872.160708	0.636115	182.812500	-357.617187
434872.162708	0.923297	182.812500	-357.617187
434872.164709	0.946774	182.812500	-357.617187
434872.166708	0.944230	10.386532	0.382852
434873.240734	0.395369	178.222656	108.886719
434873.242736	0.761059	178.222656	108.886719
434873.244736	0.947776	178.222656	108.886719
434873.246736	0.945630	10.401926	0.342525
434874.256796	0.442274	202.050781	-347.167969
434874.258797	0.803081	202.050781	-347.167969
434874.260798	0.949339	202.050781	-347.167969
434874.262798	0.946119	10.407314	0.360678
434875.338795	0.561201	178.417969	111.132812
434875.340797	0.888533	178.417969	111.132812
434875.344796	0.944133	178.417969	111.132812
434875.346797	0.942673	10.369401	0.300644
434876.355797	0.778390	208.203125	-343.359375
434876.357798	0.948225	208.203125	-343.359375
434876.359797	0.945402	10.399426	0.322574
434877.435812	0.537652	166.699219	99.804687
434877.437816	0.874452	166.699219	99.804687
434877.439815	0.878607	166.699219	99.804687
434877.441815	0.944296	10.387259	0.267162
434878.451845	0.578537	154.296875	-381.640625
434878.453847	0.898402	154.296875	-381.640625
434878.455847	0.947627	154.296875	-381.640625
434878.457847	0.944731	10.392045	0.288016
434879.531870	0.333617	172.167969	104.687500
434879.533872	0.703134	172.167969	104.687500
434879.535871	0.941751	172.167969	104.687500
434879.537872	0.946484	172.167969	104.687500
434879.539872	0.944047	10.384512	0.256914
434880.516810	0.684455	263.085937	-306.542969
434880.520811	0.945601	263.085937	-306.542969
434880.522814	0.943303	263.085937	-306.542969
434880.524814	0.941976	10.361735	0.608858
434881.597786	0.617359	177.539062	110.253906
434881.599786	0.915853	177.539062	110.253906
434881.601786	0.946372	177.539062	110.253906
434881.603786	0.943711	10.380816	0.374573
434882.613845	0.661599	212.988281	-342.871094
434882.615847	0.931574	212.988281	-342.871094
434882.617847	0.946416	212.988281	-342.871094
434882.619847	0.943906	10.382961	0.503314
434883.693911	0.429584	182.324219	113.476562
434883.695912	0.792135	182.324219	113.476562
434883.697914	0.949668	182.324219	113.476562
434883.699915	0.946746	10.414209	0.365703
434884.710467	0.566877	213.964844	-344.042969
434884.712470	0.580839	213.964844	-344.042969
434884.714469	0.947504	213.964844	-344.042969
434884.716469	0.947354	10.420892	0.413381
434885.792498	0.693240	183.593750	114.160156
434885.794500	0.939668	183.593750	114.160156
434885.796500	0.946333	183.593750	114.160156
434885.800498	0.942666	10.369322	0.323271
434886.806520	0.363965	188.769531	-362.109375
434886.808523	0.731357	188.769531	-362.109375
434886.810529	0.945444	188.769531	-362.109375
434886.812529	0.945443	10.399870	0.379125
434887.888592	0.500393	180.957031	107.812500
434887.890594	0.849296	180.957031	107.812500
434887.892593	0.948510	180.957031	107.812500
434887.894594	0.945162	10.396777	0.301482
434888.904589	0.535069	203.222656	-352.734375
434888.906596	0.872659	203.222656	-352.734375
434888.908597	0.947471	203.222656	-352.734375
434888.910602	0.944307	10.387374	0.349392
434889.987545	0.820437	178.710937	104.003906
434889.989548	0.948819	178.710937	104.003906
434889.991547	0.945357	10.398931	0.266799
434891.002503	0.672293	177.636719	-371.875000
434891.006503	0.946050	177.636719	-371.875000
434891.008504	0.943590	177.636719	-371.875000
434891.010506	0.942222	10.364448	0.394497
434892.083053	0.529004	169.140625	93.261719
434892.085054	0.868882	169.140625	93.261719
434892.087055	0.947506	169.140625	93.261719
434892.089055	0.944316	10.387481	0.247281
434893.067066	0.705003	226.562500	-337.597656
434893.069068	0.941163	226.562500	-337.597656
434893.071067	0.945175	226.562500	-337.597656
434893.073069	0.942973	10.372707	0.683697
434894.147141	0.473576	191.503906	110.449219
434894.149145	0.828938	191.503906	110.449219
434894.151143	0.949367	191.503906	110.449219
434894.153144	0.946091	10.406996	0.408395
434895.163208	0.521913	224.023437	-340.234375
434895.165212	0.864192	224.023437	-340.234375
434895.167212	0.947969	224.023437	-340.234375
434895.169210	0.944662	10.391282	0.432690
434896.243773	0.376572	192.285156	109.082031
434896.245775	0.743357	192.285156	109.082031
434896.247775	0.946900	192.285156	109.082031
434896.249776	0.946089	10.406978	0.403786
434897.260776	0.596429	192.480469	-364.257812
434897.262777	0.906594	192.480469	-364.257812
434897.264779	0.946236	192.480469	-364.257812
434897.266779	0.943547	10.379017	0.388840
434898.344786	0.943846	189.062500	104.687500
434898.346788	0.945495	189.062500	104.687500
434898.348788	0.943353	10.376882	0.363774
434899.357355	0.494587	160.449219	-389.355469
434899.359357	0.844951	160.449219	-389.355469
434899.361357	0.948719	160.449219	-389.355469
434899.363357	0.945282	10.398098	0.346983
434900.441406	0.917942	187.402344	102.441406
434900.443408	0.946704	187.402344	102.441406
434900.445408	0.944059	10.384654	0.322492
434901.453950	0.391305	165.332031	-387.988281
434901.455952	0.757030	165.332031	-387.988281
434901.457951	0.946936	165.332031	-387.988281
434901.459952	0.944913	10.394039	0.304988
434902.536511	0.614272	187.011719	102.929687
434902.538514	0.914551	187.011719	102.929687
434902.540512	0.946297	187.011719	102.929687
434902.542512	0.943653	10.380178	0.298832
434903.552548	0.656607	155.468750	-398.242187
434903.554551	0.929484	155.468750	-398.242187
434903.556549	0.945610	155.468750	-398.242187
434903.558551	0.943220	10.375419	0.276516
434904.633143	0.520153	182.324219	99.414062
434904.635146	0.862767	182.324219	99.414062
434904.637144	0.946992	182.324219	99.414062
434904.639145	0.943773	10.381507	0.265295
434905.616162	0.513380	216.992187	-351.269531
434905.618163	0.858104	216.992187	-351.269531
434905.620163	0.947120	216.992187	-351.269531
434905.622164	0.946960	10.416557	0.473097
434906.732734	0.906778	172.070312	92.968750
434906.734736	0.946940	172.070312	92.968750
434906.736737	0.944104	10.385141	0.235280
434907.716797	0.947338	208.398437	-360.644531
434907.718800	0.947374	10.421113	0.436145
434908.795359	0.642200	185.839844	105.761719
434908.797363	0.925035	185.839844	105.761719
434908.799362	0.946273	185.839844	105.761719
434908.801363	0.943673	10.380408	0.381591
434909.811373	0.677431	179.785156	-388.671875
434909.813375	0.934994	179.785156	-388.671875
434909.815376	0.945019	179.785156	-388.671875
434909.817375	0.942790	10.370687	0.515053
434910.893358	0.793421	188.085937	109.277344
434910.895359	0.948701	188.085937	109.277344
434910.897360	0.945481	10.400295	0.352822
434911.907920	0.567658	180.273437	-390.429687
434911.909922	0.891958	180.273437	-390.429687
434911.913921	0.944040	180.273437	-390.429687
434911.917925	0.941441	10.355851	0.353091
434912.988450	0.419911	179.296875	102.929687
434912.990452	0.783521	179.296875	102.929687
434912.992453	0.949362	179.296875	102.929687
434912.998455	0.943351	10.376863	0.320167
434914.004455	0.456299	139.062500	-428.320312
434914.008454	0.949263	139.062500	-428.320312
434914.010458	0.945916	139.062500	-428.320312
434914.012457	0.944026	10.384281	0.320334
434915.086513	0.586042	181.347656	105.078125
434915.088518	0.901627	181.347656	105.078125
434915.090518	0.946633	181.347656	105.078125
434915.092515	0.943847	10.382314	0.276607
434916.102556	0.628109	139.062500	-431.152344
434916.104559	0.920022	139.062500	-431.152344
434916.106557	0.946250	139.062500	-431.152344
434916.108558	0.943661	10.380276	0.274451
434917.182600	0.390956	172.558594	97.949219
434917.184602	0.756918	172.558594	97.949219
434917.186602	0.763148	172.558594	97.949219
434917.188602	0.945798	10.403778	0.247335
434918.168614	0.891734	222.753906	-356.835937
434918.170615	0.946497	222.753906	-356.835937
434918.172616	0.943589	10.379478	0.498466
434919.281174	0.651594	170.996094	95.117187
434919.283175	0.930060	170.996094	95.117187
434919.285176	0.948999	170.996094	95.117187
434919.287174	0.946302	10.409317	0.256396
434920.265212	0.825637	215.917969	-363.964844
434920.267215	0.948610	215.917969	-363.964844
434920.269215	0.945149	10.396635	0.457395
434921.344176	0.397727	192.285156	112.304687
434921.346179	0.763037	192.285156	112.304687
434921.350176	0.945459	192.285156	112.304687
434921.352179	0.943428	10.377706	0.401360
434922.362184	0.797006	189.355469	-389.062500
434922.364185	0.947783	189.355469	-389.062500
434922.366185	0.944552	10.390078	0.414626
434923.442742	0.657854	183.105469	102.539062
434923.444746	0.671432	183.105469	102.539062
434923.446752	0.946298	183.105469	102.539062
434923.448755	0.943777	10.381542	0.398642
434924.458801	0.703449	161.035156	-416.406250
434924.460804	0.941171	161.035156	-416.406250
434924.462803	0.945601	161.035156	-416.406250
434924.464801	0.943349	10.376837	0.574206
434925.538871	0.472499	179.003906	98.730469
434925.540873	0.827941	179.003906	98.730469
434925.542873	0.949055	179.003906	98.730469
434925.544875	0.945568	10.401243	0.315966
434926.554905	0.513757	138.574219	-435.156250
434926.558906	0.946936	138.574219	-435.156250
434926.560908	0.943703	138.574219	-435.156250
434926.562907	0.942081	10.362888	0.316957
434927.636964	0.643052	179.785156	96.093750
434927.638965	0.925514	179.785156	96.093750
434927.640966	0.946277	179.785156	96.093750
434927.642967	0.946149	10.407634	0.281188
434928.655008	0.936982	116.015625	-454.980469
434928.657008	0.945265	116.015625	-454.980469
434928.659009	0.943047	10.373513	0.276394
434929.733069	0.452668	182.812500	96.093750
434929.735072	0.811789	182.812500	96.093750
434929.737071	0.949233	182.812500	96.093750
434929.739072	0.945911	10.405019	0.254022
434930.751093	0.843662	126.953125	-444.726562
434930.753093	0.948824	126.953125	-444.726562
434930.755094	0.945398	10.399383	0.227811
434931.829621	0.338300	169.531250	83.886719
434931.831624	0.707069	169.531250	83.886719
434931.833624	0.941734	169.531250	83.886719
434931.835623	0.945558	169.531250	83.886719
434931.839624	0.942139	10.363526	0.243082
434932.815652	0.864548	191.503906	-384.472656
434932.817652	0.946825	191.503906	-384.472656
434932.819654	0.943690	10.380594	0.444959
434933.928256	0.613774	172.460937	82.226562
434933.930258	0.914331	172.460937	82.226562
434933.932257	0.946491	172.460937	82.226562
434933.934257	0.943823	10.382057	0.204471
434934.910282	0.428372	175.878906	-398.437500
434934.912284	0.790724	175.878906	-398.437500
434934.914284	0.948006	175.878906	-398.437500
434934.916284	0.945004	10.395049	0.404817
434935.992367	0.562665	196.777344	96.093750
434935.994370	0.889213	196.777344	96.093750
434935.996369	0.946750	196.777344	96.093750
434935.998369	0.943841	10.382252	0.389271
434937.006907	0.327233	154.394531	-417.187500
434937.008908	0.696597	154.394531	-417.187500
434937.010909	0.939380	154.394531	-417.187500
434937.012908	0.945093	154.394531	-417.187500
434937.016907	0.941522	10.356737	0.362013
434938.090920	0.813424	191.406250	90.429687
434938.092920	0.948292	191.406250	90.429687
434938.094921	0.944874	10.393613	0.338775
434939.104983	0.501862	130.175781	-437.792969
434939.106985	0.850154	130.175781	-437.792969
434939.108985	0.948060	130.175781	-437.792969
434939.110985	0.944651	10.391158	0.302317
434940.187036	0.630455	187.207031	86.425781
434940.189038	0.920478	187.207031	86.425781
434940.191036	0.945504	187.207031	86.425781
434940.193037	0.943030	10.373327	0.296340
434941.203025	0.663843	152.832031	-417.968750
434941.205026	0.931905	152.832031	-417.968750
434941.207025	0.945962	152.832031	-417.968750
434941.209027	0.943512	10.378627	0.344177
434942.283049	0.422341	178.027344	79.785156
434942.285050	0.785514	178.027344	79.785156
434942.287050	0.793596	178.027344	79.785156
434942.289050	0.946177	10.407952	0.263156
434943.299092	0.466153	121.484375	-445.312500
434943.301094	0.822846	121.484375	-445.312500
434943.303094	0.948933	121.484375	-445.312500
434943.305094	0.945494	10.400429	0.226746
434944.381124	0.590756	181.152344	80.957031
434944.383125	0.904460	181.152344	80.957031
434944.387123	0.944577	181.152344	80.957031
434944.389127	0.943010	10.373115	0.225851
434945.399202	0.924892	98.925781	-464.160156
434945.401204	0.946438	98.925781	-464.160156
434945.403211	0.943899	10.382890	0.206133
434946.445235	0.541563	205.859375	94.042969
434946.447237	0.876629	205.859375	94.042969
434946.449236	0.947138	205.859375	94.042969
434946.451237	0.944022	10.384236	0.411079
434947.461262	0.580276	206.152344	-373.046875
434947.463264	0.898700	206.152344	-373.046875
434947.465266	0.946583	206.152344	-373.046875
434947.467264	0.943785	10.381640	0.414635
434948.541793	0.433397	196.093750	88.964844
434948.543797	0.795263	196.093750	88.964844
434948.545797	0.948657	196.093750	88.964844
434948.547796	0.945499	10.400491	0.369946
434949.559827	0.828789	193.359375	-385.937500
434949.563828	0.944826	193.359375	-385.937500
434949.565830	0.943101	10.374116	0.382384
434950.642351	0.937194	182.128906	81.835937
434950.644353	0.944971	182.128906	81.835937
434950.646354	0.942784	10.370625	0.322543
434951.658394	0.944691	145.117187	-429.785156
434951.660395	0.945431	145.117187	-429.785156
434951.662395	0.942989	10.372875	0.356893
434952.736401	0.487860	187.011719	83.886719
434952.738404	0.839683	187.011719	83.886719
434952.740404	0.947952	187.011719	83.886719
434952.742408	0.944544	10.389989	0.280882
434953.752958	0.622271	154.687500	-423.046875
434953.754961	0.917556	154.687500	-423.046875
434953.756961	0.945989	154.687500	-423.046875
434953.758960	0.943388	10.377262	0.291427
434954.834975	0.745814	182.519531	81.738281
434954.836977	0.946523	182.519531	81.738281
434954.838976	0.945374	10.399117	0.629120
434955.849928	0.587740	153.222656	-425.292969
434955.851932	0.902364	153.222656	-425.292969
434955.853934	0.946386	153.222656	-425.292969
434955.855935	0.943627	10.379894	0.264376
434956.934472	0.947724	179.199219	78.417969
434956.936476	0.944384	10.388226	0.205727
434957.947055	0.585900	126.855469	-449.707031
434957.949056	0.901467	126.855469	-449.707031
434957.951057	0.946359	126.855469	-449.707031
434957.953055	0.943584	10.379425	0.211726
434958.995097	0.489579	189.257812	83.593750
434958.997098	0.840946	189.257812	83.593750
434958.999099	0.947910	189.257812	83.593750
434959.001100	0.944489	10.389377	0.413640
434960.011563	0.605287	173.242187	-408.789062
434960.015563	0.946564	173.242187	-408.789062
434960.017565	0.943823	173.242187	-408.789062
434960.019564	0.942422	10.366646	0.445631
434961.091614	0.370223	188.964844	82.617187
434961.093622	0.737186	188.964844	82.617187
434961.095632	0.946416	188.964844	82.617187
434961.097627	0.945945	10.405392	0.385457
434962.109645	0.772579	183.593750	-400.195312
434962.111648	0.947948	183.593750	-400.195312
434962.113648	0.945365	10.399011	0.834041
434963.192167	0.919482	181.347656	77.539062
434963.194169	0.945251	181.347656	77.539062
434963.196168	0.942877	10.371644	0.315498
434964.208220	0.934036	146.386719	-435.351562
434964.210220	0.944967	146.386719	-435.351562
434964.212221	0.942655	10.369206	0.361917
434965.286232	0.431850	187.792969	79.101562
434965.288234	0.793667	187.792969	79.101562
434965.290233	0.948543	187.792969	79.101562
434965.292233	0.945434	10.399773	0.284344
434966.302317	0.480675	144.921875	-436.718750
434966.304320	0.834357	144.921875	-436.718750
434966.306321	0.948802	144.921875	-436.718750
434966.308319	0.945364	10.399001	0.283736
434967.386385	0.912616	188.964844	77.929687
434967.388387	0.946335	188.964844	77.929687
434967.390387	0.943634	10.379974	0.244224
434968.400966	0.752426	132.910156	-449.218750
434968.402965	0.946350	132.910156	-449.218750
434968.404965	0.946652	10.413173	0.236893
434969.483483	0.908531	173.632812	68.945312
434969.485485	0.945614	173.632812	68.945312
434969.487485	0.943000	10.372999	0.217137
434970.497517	0.643489	106.152344	-474.609375
434970.499519	0.925071	106.152344	-474.609375
434970.501519	0.945416	106.152344	-474.609375
434970.503518	0.942991	10.372903	0.186112
434971.577535	0.400494	180.273437	71.777344
434971.579535	0.765424	180.273437	71.777344
434971.581535	0.948133	180.273437	71.777344
434971.583534	0.945863	10.404496	0.201651
434972.561540	0.577378	163.281250	-422.949219
434972.563542	0.896885	163.281250	-422.949219
434972.565542	0.946107	163.281250	-422.949219
434972.567544	0.943327	10.376597	0.409213
434973.643599	0.706309	207.421875	85.546875
434973.645603	0.941252	207.421875	85.546875
434973.647601	0.945120	207.421875	85.546875
434973.649603	0.942998	10.372982	0.589825
434974.657645	0.385451	166.308594	-419.726562
434974.659647	0.751211	166.308594	-419.726562
434974.661648	0.946397	166.308594	-419.726562
434974.663648	0.944835	10.393188	0.356979
434975.740190	0.605654	206.445312	83.984375
434975.742193	0.910804	206.445312	83.984375
434975.744191	0.946375	206.445312	83.984375
434975.746192	0.943732	10.381056	0.339990
434976.758235	0.926821	151.074219	-436.425781
434976.762233	0.943215	151.074219	-436.425781
434976.764234	0.941841	10.360255	0.310603
434977.838775	0.850361	195.800781	78.906250
434977.840776	0.948197	195.800781	78.906250
434977.842779	0.944828	10.393108	0.308173
434978.853354	0.642083	115.820312	-473.925781
434978.855355	0.924665	115.820312	-473.925781
434978.857356	0.945576	115.820312	-473.925781
434978.859355	0.943182	10.375003	0.245403
434979.933433	0.412016	186.718750	74.511719
434979.935435	0.776066	186.718750	74.511719
434979.937435	0.947786	186.718750	74.511719
434979.939436	0.945099	10.396086	0.274464
434980.949455	0.452115	95.703125	-496.777344
434980.951457	0.811229	95.703125	-496.777344
434980.953464	0.949045	95.703125	-496.777344
434980.955465	0.945732	10.403052	0.231680
434982.031514	0.580027	186.718750	75.878906
434982.033515	0.898481	186.718750	75.878906
434982.035515	0.946598	186.718750	75.878906
434982.037515	0.943830	10.382128	0.238699
434983.048051	0.715239	114.160156	-482.519531
434983.050054	0.942915	114.160156	-482.519531
434983.052053	0.945288	114.160156	-482.519531
434983.054053	0.943115	10.374267	0.477198
434984.128995	0.643472	173.242187	70.019531
434984.130998	0.925251	173.242187	70.019531
434984.132997	0.927124	173.242187	70.019531
434984.134997	0.943266	10.375924	0.198868
434985.111056	0.464332	164.746094	-430.175781
434985.113057	0.821023	164.746094	-430.175781
434985.115058	0.947977	164.746094	-430.175781
434985.117059	0.944537	10.389909	0.401251
434986.193119	0.594681	204.980469	85.839844
434986.195121	0.905221	204.980469	85.839844
434986.197120	0.945336	204.980469	85.839844
434986.199121	0.942673	10.369401	0.381890
434987.208063	0.437381	146.386719	-452.929687
434987.210063	0.798367	146.386719	-452.929687
434987.212064	0.948265	146.386719	-452.929687
434987.214063	0.944982	10.394801	0.348642
434988.290077	0.559821	198.925781	83.496094
434988.292078	0.887301	198.925781	83.496094
434988.294079	0.946228	198.925781	83.496094
434988.296079	0.943404	10.377439	0.362258
434989.304663	0.332889	127.246094	-475.097656
434989.306670	0.701986	127.246094	-475.097656
434989.308676	0.940640	127.246094	-475.097656
434989.310678	0.945043	127.246094	-475.097656
434989.312679	0.942881	10.371688	0.311041
434990.386731	0.469259	194.433594	81.152344
434990.388732	0.825068	194.433594	81.152344
434990.390732	0.948188	194.433594	81.152344
434990.392733	0.944733	10.392062	0.318976
434991.407260	0.945511	102.539062	-503.222656
434991.409264	0.942886	10.371741	0.258940
434992.485342	0.734775	190.625000	78.906250
434992.487344	0.946040	190.625000	78.906250
434992.489346	0.945853	190.625000	78.906250
434992.491345	0.943742	10.381162	0.594020
434993.500260	0.572797	93.359375	-514.746094
434993.502261	0.894501	93.359375	-514.746094
434993.504263	0.946299	93.359375	-514.746094
434993.506266	0.943533	10.378858	0.217451
434994.582299	0.698375	180.957031	74.121094
434994.584302	0.939619	180.957031	74.121094
434994.586300	0.944950	180.957031	74.121094
434994.588301	0.942729	10.370022	0.439219
434995.596334	0.372849	90.625000	-518.164062
434995.598335	0.739424	90.625000	-518.164062
434995.600333	0.945888	90.625000	-518.164062
434995.602334	0.945255	10.397805	0.182919
434996.680364	0.850837	182.617187	73.828125
434996.682369	0.948550	182.617187	73.828125
434996.684371	0.945097	10.396068	0.186682
434997.662933	0.777571	138.085937	-467.187500
434997.666934	0.944246	138.085937	-467.187500
434997.668940	0.942492	10.367408	0.402985
434998.776962	0.765188	169.140625	66.113281
434998.778964	0.947465	169.140625	66.113281
434998.780964	0.945149	10.396635	0.178852
434999.759034	0.588507	143.750000	-460.546875
434999.761034	0.902593	143.750000	-460.546875
434999.763034	0.946032	143.750000	-460.546875
434999.765034	0.943401	10.377414	0.348055
435000.841105	0.720471	191.796875	74.707031
435000.843107	0.943192	191.796875	74.707031
435000.845107	0.944764	191.796875	74.707031
435000.847107	0.942766	10.370420	0.356873
435001.857153	0.763086	113.183594	-494.140625
435001.859155	0.946318	113.183594	-494.140625
435001.861155	0.944233	10.386568	0.306561
435002.939212	0.673558	201.464844	77.441406
435002.941212	0.946134	201.464844	77.441406
435002.943212	0.943110	10.374214	0.302004
435003.954150	0.737065	129.199219	-476.562500
435003.956151	0.944705	129.199219	-476.562500
435003.958150	0.944250	10.386754	0.259842
435005.036744	0.908310	197.167969	74.121094
435005.038746	0.945520	197.167969	74.121094
435005.040746	0.943005	10.373053	0.255705
435006.049722	0.449807	110.546875	-496.191406
435006.051726	0.809186	110.546875	-496.191406
435006.053726	0.948711	110.546875	-496.191406
435006.055726	0.945357	10.398931	0.211036
435007.133781	0.897996	190.625000	70.019531
435007.135784	0.945946	190.625000	70.019531
435007.137785	0.945819	10.404009	0.221293
435008.146377	0.353548	82.324219	-523.437500
435008.148385	0.721221	82.324219	-523.437500
435008.150386	0.945054	82.324219	-523.437500
435008.152386	0.946615	82.324219	-523.437500
435008.154386	0.944419	10.388606	0.185745
435009.228408	0.483139	185.351562	66.015625
435009.230411	0.836085	185.351562	66.015625
435009.232417	0.948371	185.351562	66.015625
435009.236415	0.943193	10.375127	0.195483
435010.212455	0.663577	154.199219	-445.703125
435010.214457	0.930760	154.199219	-445.703125
435010.216456	0.944426	154.199219	-445.703125
435010.218456	0.942178	10.363960	0.467978
435011.294516	0.793497	212.207031	75.000000
435011.296518	0.948101	212.207031	75.000000
435011.298518	0.944855	10.393410	0.409278
435012.309115	0.574480	142.480469	-460.253906
435012.311116	0.894978	142.480469	-460.253906
435012.313116	0.945344	142.480469	-460.253906
435012.317116	0.941008	10.351092	0.348559
435013.389159	0.334870	209.082031	73.339844
435013.391158	0.703557	209.082031	73.339844
435013.393160	0.940712	209.082031	73.339844
435013.395160	0.944948	209.082031	73.339844
435013.397159	0.942858	10.371440	0.359256
435014.405732	0.478917	144.042969	-460.058594
435014.407734	0.833296	144.042969	-460.058594
435014.409734	0.950722	144.042969	-460.058594
435014.411734	0.947544	10.422983	0.306076
435015.489784	0.911038	201.464844	70.312500
435015.491785	0.945886	201.464844	70.312500
435015.493787	0.943297	10.376270	0.291998
435016.502352	0.378781	120.410156	-486.914062
435016.504354	0.744940	120.410156	-486.914062
435016.506354	0.946162	120.410156	-486.914062
435016.508355	0.945045	10.395493	0.265813
435017.584349	0.502339	196.386719	68.359375
435017.586352	0.850311	196.386719	68.359375
435017.588353	0.948437	196.386719	68.359375
435017.590351	0.945049	10.395536	0.268901
435018.600903	0.636560	118.359375	-489.941406
435018.602905	0.923269	118.359375	-489.941406
435018.604906	0.946617	118.359375	-489.941406
435018.606904	0.943987	10.383856	0.215466
435019.680996	0.406688	184.960937	63.867187
435019.682998	0.427481	184.960937	63.867187
435019.684998	0.947586	184.960937	63.867187
435019.686998	0.945016	10.395173	0.215700
435020.701050	0.947836	114.550781	-494.140625
435020.703051	0.944480	114.550781	-494.140625
435020.705051	0.942753	10.370279	0.191061
435021.779611	0.677626	188.574219	64.746094
435021.781613	0.935291	188.574219	64.746094
435021.783613	0.945407	188.574219	64.746094
435021.785614	0.943139	10.374524	0.181262
435022.795608	0.709422	80.371094	-528.125000
435022.797611	0.941260	80.371094	-528.125000
435022.801608	0.942398	80.371094	-528.125000
435022.803610	0.941212	10.353334	0.166073
435023.843677	0.616310	213.769531	73.339844
435023.845678	0.914606	213.769531	73.339844
435023.847678	0.945151	213.769531	73.339844
435023.849680	0.942681	10.369491	0.387084
435024.858581	0.453278	171.386719	-432.812500
435024.862582	0.948527	171.386719	-432.812500
435024.864582	0.945099	171.386719	-432.812500
435024.866582	0.943329	10.376616	0.384782
435025.942611	1.109207	202.636719	69.921875
435025.944613	0.946200	202.636719	69.921875
435025.948610	0.941990	10.361896	0.318162
435026.955179	0.349253	139.843750	-470.996094
435026.957179	0.413491	139.843750	-470.996094
435026.959180	0.942421	139.843750	-470.996094
435026.961179	0.944412	139.843750	-470.996094
435026.963180	0.944348	10.387827	0.336993
435028.039264	0.505278	197.070312	68.457031
435028.041266	0.947025	197.070312	68.457031
435028.043269	0.943686	10.380542	0.279672
435029.053280	0.526543	139.648437	-470.800781
435029.055284	0.866447	139.648437	-470.800781
435029.057284	0.945981	139.648437	-470.800781
435029.059283	0.942973	10.372707	0.280215
435030.135332	1.500452	189.941406	64.941406
435030.137336	0.928954	189.941406	64.941406
435030.139335	0.945426	189.941406	64.941406
435030.141336	0.942969	10.372663	0.287623
435031.149371	0.327157	125.097656	-488.183594
435031.151371	0.696346	125.097656	-488.183594
435031.153372	0.940780	125.097656	-488.183594
435031.155371	0.947111	125.097656	-488.183594
435031.157371	0.944698	10.391682	0.247143
435032.231406	0.458094	185.742187	62.988281
435032.233408	0.816220	185.742187	62.988281
435032.235408	0.948793	185.742187	62.988281
435032.237408	0.945356	10.398912	0.200031
435033.247455	0.502868	103.906250	-511.425781
435033.249456	0.850661	103.906250	-511.425781
435033.251457	0.947946	103.906250	-511.425781
435033.253457	0.944540	10.389944	0.197585
435034.331511	0.920536	183.203125	60.839844
435034.333514	0.944845	183.203125	60.839844
435034.337511	0.940914	10.350055	0.165019
435035.344069	0.403377	91.992187	-524.218750
435035.346071	0.767930	91.992187	-524.218750
435035.348071	0.946866	91.992187	-524.218750
435035.350071	0.944372	10.388092	0.163675
435036.394143	0.677902	216.699219	72.167969
435036.396146	0.934376	216.699219	72.167969
435036.398144	0.944236	216.699219	72.167969
435036.400145	0.942018	10.362196	0.391160
435037.408683	0.446529	150.000000	-462.695312
435037.410685	0.806332	150.000000	-462.695312
435037.412685	0.949063	150.000000	-462.695312
435037.414684	0.945670	10.402369	0.376518
435038.490753	0.577412	212.988281	70.019531
435038.492754	0.896869	212.988281	70.019531
435038.494757	0.945955	212.988281	70.019531
435038.496757	0.943242	10.375658	0.354779
435039.505730	0.426776	152.734375	-459.863281
435039.507729	0.789056	152.734375	-459.863281
435039.509729	0.947774	152.734375	-459.863281
435039.511729	0.944714	10.391859	0.324032
435040.587805	0.558491	201.464844	65.917969
435040.589805	0.886505	201.464844	65.917969
435040.591805	0.946235	201.464844	65.917969
435040.593806	0.943403	10.377431	0.287099
435041.607853	0.945588	131.933594	-483.789062
435041.609856	0.942897	131.933594	-483.789062
435041.611857	0.941403	10.355434	0.253865
435042.684419	0.460724	196.386719	63.085937
435042.686421	0.818002	196.386719	63.085937
435042.688422	0.948116	196.386719	63.085937
435042.690423	0.944692	10.391610	0.257617
435043.700481	0.507080	98.339844	-521.289062
435043.702487	0.853311	98.339844	-521.289062
435043.704487	0.946352	98.339844	-521.289062
435043.706485	0.943315	10.376465	0.226864
435044.782523	0.634934	199.609375	62.402344
435044.784524	0.921904	199.609375	62.402344
435044.786525	0.945257	199.609375	62.402344
435044.788525	0.942794	10.370731	0.229028
435045.801057	0.770513	107.031250	-514.355469
435045.803059	0.944969	10.394659	0.656049
435046.880029	0.699600	196.093750	60.839844
435046.882032	0.939714	196.093750	60.839844
435046.884032	0.940845	196.093750	60.839844
435046.886031	0.942699	10.369694	0.196739
435047.894598	0.473341	84.375000	-540.820312
435047.896599	0.828245	84.375000	-540.820312
435047.898598	0.948031	84.375000	-540.820312
435047.900597	0.947911	10.427025	0.138471
435048.978640	0.907180	188.964844	58.789062
435048.980642	0.945410	188.964844	58.789062
435048.982643	0.942813	10.370943	0.160017
435049.959131	0.498869	157.617187	-453.808594
435049.963131	0.946439	157.617187	-453.808594
435049.965133	0.943161	157.617187	-453.808594
435049.967131	0.941464	10.356099	0.365559
435051.039678	0.351862	217.480469	68.750000
435051.041680	0.719539	217.480469	68.750000
435051.043679	0.943815	217.480469	68.750000
435051.045678	0.945574	217.480469	68.750000
435051.047680	0.943384	10.377227	0.356709
435052.058229	0.841433	137.597656	-481.054687
435052.060230	0.947506	137.597656	-481.054687
435052.062231	0.944207	10.386275	0.285098
435053.136816	0.349425	213.574219	66.894531
435053.138815	0.717457	213.574219	66.894531
435053.140815	0.942870	213.574219	66.894531
435053.142816	0.944747	213.574219	66.894531
435053.144814	0.942749	10.370243	0.332568
435054.154826	0.753860	137.890625	-482.226562
435054.156827	0.946323	137.890625	-482.226562
435054.158829	0.944586	10.390450	0.240992
435055.234859	0.515665	197.265625	61.914062
435055.236858	0.859227	197.265625	61.914062
435055.238859	0.946115	197.265625	61.914062
435055.240860	0.943037	10.373407	0.266984
435056.250882	0.555031	104.492187	-527.539062
435056.254882	0.946378	104.492187	-527.539062
435056.256886	0.943437	104.492187	-527.539062
435056.260884	0.940719	10.347910	0.196642
435057.332927	0.681625	187.695312	59.375000
435057.334928	0.935929	187.695312	59.375000
435057.336934	0.944945	187.695312	59.375000
435057.338932	0.942761	10.370368	0.377703
435058.346991	0.360669	88.671875	-548.730469
435058.349004	0.727953	88.671875	-548.730469
435058.351003	0.943967	88.671875	-548.730469
435058.353004	0.944232	88.671875	-548.730469
435058.355003	0.942245	10.364696	0.170149
435059.429050	0.495493	195.605469	62.500000
435059.431052	0.845139	195.605469	62.500000
435059.433053	0.947343	195.605469	62.500000
435059.435053	0.944056	10.384619	0.199977
435060.446017	0.705640	85.253906	-554.882812
435060.448021	0.941485	85.253906	-554.882812
435060.450021	0.945503	85.253906	-554.882812
435060.452020	0.943338	10.376713	0.398142
435061.528602	0.891421	190.917969	61.816406
435061.530604	0.945775	190.917969	61.816406
435061.532603	0.943015	10.373168	0.155531
435062.508613	0.377595	163.378906	-449.902344
435062.510612	0.392267	163.378906	-449.902344
435062.512613	0.944949	163.378906	-449.902344
435062.514613	0.943944	10.383387	0.344483
435063.592638	0.851342	202.246094	65.332031
435063.594641	0.857156	202.246094	65.332031
435063.596641	0.943364	10.377006	0.353941
435064.606676	0.547062	127.832031	-502.441406
435064.608678	0.879469	127.832031	-502.441406
435064.610679	0.945809	127.832031	-502.441406
435064.612680	0.942897	10.371865	0.281992
435065.688767	1.650799	210.937500	67.187500
435065.690765	0.936096	210.937500	67.187500
435065.692766	0.945089	210.937500	67.187500
435065.694766	0.942815	10.370961	0.454628
435066.703718	0.524200	96.582031	-544.921875
435066.705719	0.865112	96.582031	-544.921875
435066.707718	0.946510	96.582031	-544.921875
435066.709719	0.943542	10.378964	0.258448
435067.786203	0.732831	206.542969	65.136719
435067.788202	0.944212	206.542969	65.136719
435067.792200	0.942094	10.363029	0.270186
435068.800758	0.506815	94.921875	-547.265625
435068.802760	0.852893	94.921875	-547.265625
435068.804762	0.945962	94.921875	-547.265625
435068.808760	0.941194	10.353139	0.203867
435069.884818	0.921595	195.898437	60.644531
435069.886819	0.945051	195.898437	60.644531
435069.888818	0.942557	10.368126	0.216834
435070.898844	0.674992	82.324219	-562.695312
435070.900844	0.934487	82.324219	-562.695312
435070.902845	0.945490	82.324219	-562.695312
435070.904844	0.943116	10.374276	0.297034
435071.980873	0.797529	195.117187	60.351562
435071.984873	0.943727	195.117187	60.351562
435071.986873	0.941930	10.361231	0.187392
435072.995447	0.576694	77.929687	-566.796875
435072.997449	0.896064	77.929687	-566.796875
435072.999449	0.945091	77.929687	-566.796875
435073.001448	0.942418	10.366601	0.130048
435074.079477	0.940347	188.085937	56.933594
435074.081476	0.945029	188.085937	56.933594
435074.083476	0.942883	10.371715	0.393233
435075.062043	0.913770	121.093750	-511.425781
435075.064047	0.945315	121.093750	-511.425781
435075.066045	0.942863	10.371492	0.325237
435076.142101	0.744631	221.679687	64.550781
435076.144102	0.944878	221.679687	64.550781
435076.146105	0.943794	10.381738	0.371785
435077.156672	0.520153	134.082031	-493.457031
435077.158679	0.862168	134.082031	-493.457031
435077.160686	0.946008	134.082031	-493.457031
435077.164687	0.941352	10.354876	0.282756
435078.237247	0.377165	211.035156	60.351562
435078.239251	0.743507	211.035156	60.351562
435078.241251	0.946438	211.035156	60.351562
435078.243254	0.947135	10.418489	0.322014
435079.253310	0.425851	110.449219	-526.171875
435079.255312	0.788206	110.449219	-526.171875
435079.257314	0.947810	110.449219	-526.171875
435079.259312	0.944782	10.392603	0.247164
435080.335325	0.548197	209.179687	59.472656
435080.337326	0.880161	209.179687	59.472656
435080.339327	0.945765	209.179687	59.472656
435080.343325	0.941290	10.354195	0.277577
435081.349839	0.306874	89.843750	-552.343750
435081.351843	0.677107	89.843750	-552.343750
435081.353842	0.934159	89.843750	-552.343750
435081.355842	0.944245	89.843750	-552.343750
435081.359840	0.940573	10.346297	0.224541
435082.433837	0.793628	202.246094	57.421875
435082.435839	0.946975	202.246094	57.421875
435082.437838	0.943864	10.382509	0.221369
435083.448354	0.560074	90.136719	-552.636719
435083.450355	0.887172	90.136719	-552.636719
435083.452355	0.945546	90.136719	-552.636719
435083.454355	0.942753	10.370279	0.164084
435084.530429	0.691389	201.660156	57.617187
435084.532431	0.937782	201.660156	57.617187
435084.534430	0.944580	201.660156	57.617187
435084.536431	0.942305	10.365352	0.369464
435085.548456	0.944068	90.917969	-550.976562
435085.550459	0.943960	90.917969	-550.976562
435085.552459	0.941976	10.361735	0.139711
435086.628995	0.901447	177.441406	50.195312
435086.630997	0.945942	177.441406	50.195312
435086.632997	0.943217	10.375383	0.149469
435087.609045	0.404412	150.878906	-473.437500
435087.611046	0.768839	150.878906	-473.437500
435087.613048	0.947056	150.878906	-473.437500
435087.615046	0.944614	10.390751	0.366376
435088.691105	0.537156	223.339844	60.644531
435088.693108	0.873411	223.339844	60.644531
435088.695108	0.946256	223.339844	60.644531
435088.697108	0.943288	10.376163	0.342433
435089.707622	0.663794	144.238281	-484.570312
435089.709624	0.930882	144.238281	-484.570312
435089.711624	0.944511	144.238281	-484.570312
435089.715621	0.940904	10.349939	0.376490
435090.788131	0.513724	219.628906	60.253906
435090.790132	0.857805	219.628906	60.253906
435090.792131	0.946335	219.628906	60.253906
435090.794131	0.943106	10.374161	0.307444
435091.803099	0.357357	138.183594	-493.945312
435091.805125	0.724622	138.183594	-493.945312
435091.807130	0.943276	138.183594	-493.945312
435091.809128	0.943770	138.183594	-493.945312
435091.811128	0.941741	10.359148	0.266446
435092.885684	0.586526	211.523437	58.789062
435092.887684	0.901263	211.523437	58.789062
435092.889686	0.945415	211.523437	58.789062
435092.891684	0.942763	10.370394	0.239085
435093.900628	0.426924	126.660156	-511.035156
435093.902630	0.789117	126.660156	-511.035156
435093.904632	0.947669	126.660156	-511.035156
435093.906631	0.944619	10.390813	0.236074
435094.987201	0.945403	197.851562	55.078125
435094.991201	0.941603	10.357633	0.235518
435095.997730	0.419385	103.125000	-541.601562
435095.999732	0.782503	103.125000	-541.601562
435096.001734	0.947399	103.125000	-541.601562
435096.003734	0.944408	10.388492	0.186881
435097.079809	0.554050	185.449219	51.953125
435097.081811	0.883796	185.449219	51.953125
435097.083813	0.946040	185.449219	51.953125
435097.085811	0.943110	10.374214	0.167574
435098.095874	0.599845	83.691406	-564.355469
435098.097876	0.907501	83.691406	-564.355469
435098.099875	0.945202	83.691406	-564.355469
435098.101875	0.942683	10.369516	0.151732
435099.147897	0.945856	212.695312	57.812500
435099.149899	0.942736	10.370093	0.403071
435100.193942	0.767316	90.527344	-557.128906
435100.195944	0.946382	90.527344	-557.128906
435100.197945	0.943948	10.383430	0.127323
435101.240488	0.396510	213.281250	57.910156
435101.242489	0.761499	213.281250	57.910156
435101.244491	0.946328	213.281250	57.910156
435101.246490	0.944205	10.386257	0.332945
435102.256531	0.440655	138.085937	-497.363281
435102.258529	0.800965	138.085937	-497.363281
435102.260529	0.947417	138.085937	-497.363281
435102.262528	0.944180	10.385983	0.324559
435103.338603	0.574453	207.617187	56.933594
435103.340606	0.894945	207.617187	56.933594
435103.342605	0.945485	207.617187	56.933594
435103.344605	0.942828	10.371103	0.277837
435104.354613	0.610402	125.390625	-515.429687
435104.356615	0.912155	125.390625	-515.429687
435104.358615	0.944991	125.390625	-515.429687
435104.360615	0.942510	10.367611	0.262552
435105.436663	0.739346	213.183594	57.421875
435105.438666	0.944555	213.183594	57.421875
435105.440664	0.944081	10.384893	0.243725
435106.453606	0.899125	116.894531	-527.246094
435106.459605	0.941300	116.894531	-527.246094
435106.461609	0.940245	10.342690	0.223323
435107.531646	0.340947	202.636719	54.394531
435107.533647	0.709179	202.636719	54.394531
435107.535649	0.941809	202.636719	54.394531
435107.537647	0.945220	202.636719	54.394531
435107.539649	0.943072	10.373797	0.205953
435108.548202	0.479100	106.152344	-541.113281
435108.550203	0.832609	106.152344	-541.113281
435108.552204	0.947581	106.152344	-541.113281
435108.554204	0.944205	10.386257	0.183241
435109.630303	0.615802	194.921875	51.562500
435109.632306	0.914438	194.921875	51.562500
435109.634308	0.945138	194.921875	51.562500
435109.636306	0.942650	10.369154	0.166857
435110.646367	0.664440	105.957031	-541.992187
435110.648369	0.930992	105.957031	-541.992187
435110.650370	0.944443	105.957031	-541.992187
435110.652369	0.942183	10.364014	0.149940
435111.726886	0.514475	195.605469	50.976562
435111.728888	0.858316	195.605469	50.976562
435111.730889	0.863174	195.605469	50.976562
435111.732888	0.943176	10.374931	0.143993
435112.743828	0.720364	84.082031	-570.507812
435112.747827	0.944419	84.082031	-570.507812
435112.749830	0.942323	84.082031	-570.507812
435112.751829	0.941003	10.351030	0.117332
435113.792394	0.719269	231.933594	59.375000
435113.794396	0.942460	231.933594	59.375000
435113.796395	0.943141	231.933594	59.375000
435113.798396	0.942019	10.362206	0.361598
435114.807334	0.560797	123.242187	-520.996094
435114.809335	0.887385	123.242187	-520.996094
435114.811335	0.945386	123.242187	-520.996094
435114.813335	0.942625	10.368870	0.297232
435115.887357	0.315303	208.789062	54.394531
435115.889360	0.684847	208.789062	54.394531
435115.891360	0.936003	208.789062	54.394531
435115.893360	0.944058	208.789062	54.394531
435115.895359	0.941900	10.360903	0.328371
435116.903363	0.351384	120.117187	-525.488281
435116.905363	0.718892	120.117187	-525.488281
435116.907365	0.942728	120.117187	-525.488281
435116.909365	0.944511	120.117187	-525.488281
435116.911364	0.942461	10.367070	0.254125
435117.987429	0.838907	218.164062	55.859375
435117.989429	0.947167	218.164062	55.859375
435117.991427	0.943817	10.381986	0.255340
435119.002347	0.689198	106.250000	-544.335937
435119.004350	0.937426	106.250000	-544.335937
435119.006353	0.944664	106.250000	-544.335937
435119.008350	0.942457	10.367026	0.382242
435120.084427	0.817529	206.640625	52.929687
435120.086432	0.946350	206.640625	52.929687
435120.088432	0.943123	10.374355	0.225497
435121.100986	0.905690	87.402344	-570.117187
435121.102989	0.945545	87.402344	-570.117187
435121.104988	0.942943	10.372370	0.156816
435122.181074	0.725534	205.859375	52.343750
435122.183075	0.943873	205.859375	52.343750
435122.185076	0.943924	205.859375	52.343750
435122.187076	0.941873	10.360601	0.191224
435123.195599	0.499239	82.226562	-579.101562
435123.197598	0.847690	82.226562	-579.101562
435123.199599	0.947038	82.226562	-579.101562
435123.201599	0.943756	10.381321	0.125919
435124.277688	0.632957	192.480469	49.707031
435124.279690	0.920643	192.480469	49.707031
435124.283693	0.942187	192.480469	49.707031
435124.287693	0.939544	10.334980	0.154385
435125.259776	0.461817	137.597656	-499.414062
435125.261780	0.818357	137.597656	-499.414062
435125.263779	0.946468	137.597656	-499.414062
435125.265779	0.943242	10.375658	0.349955
435126.343831	0.901917	227.539062	58.007812
435126.345834	0.945020	227.539062	58.007812
435126.347832	0.942419	10.366611	0.353700
435127.360409	0.943462	106.250000	-549.316406
435127.362411	0.943877	106.250000	-549.316406
435127.364412	0.941887	10.360761	0.287814
435128.440437	0.841502	222.265625	57.226562
435128.442437	0.946903	222.265625	57.226562
435128.444438	0.943613	10.379744	0.310267
435129.455034	0.633101	112.500000	-541.015625
435129.457036	0.920598	112.500000	-541.015625
435129.459036	0.944417	112.500000	-541.015625
435129.461037	0.941993	10.361921	0.224075
435130.537055	0.757832	200.585937	53.027344
435130.539055	0.946848	200.585937	53.027344
435130.543053	0.942944	10.372379	0.688653
435131.551078	0.433342	91.406250	-573.242187
435131.553078	0.794847	91.406250	-573.242187
435131.555079	0.948155	91.406250	-573.242187
435131.557080	0.944993	10.394925	0.194940
